#EXPORTTYPE:DATA ALL
#FILE:RE-478.ngb-ss5
#FORMAT:NETZSCH5
#FTYPE:ANSI
#IDENTITY:Engemann
#DECIMAL:POINT
#SEPARATOR:SEMICOLON
#MTYPE:DTA
#INSTRUMENT:NETZSCH STA 449F5
#PROJECT:
#DATE/TIME:15.03.2025 08:31
#CORR. FILE:
#TEMPCAL:TCALZERO.TCX
#SENSITIVITY:SENSZERO.EXX
#LABORATORY:Thermische Analyse
#OPERATOR:Kunert
#REMARK:
#SAMPLE:RE-478
#SAMPLE MASS /mg:15,22
#MATERIAL:
#REFERENCE:
#REFERENCE MASS /mg:0
#TYPE OF CRUCIBLE:Al2O3 0.3 ml DTA/TG, open
#SAMPLE CRUCIBLE MASS /mg:1450,98
#REFERENCE CRUCIBLE MASS /mg:0
#PURGE 1 MFC:AIR(80/20),250,3 ml/min
#PURGE 2 MFC:ARGON,240,3 ml/min
#PROTECTIVE MFC:NITROGEN,250,0 ml/min
#DTA RANGE /µV:5000
#TG RANGE /mg:35000
#TAU-R:---
#CORR. CODE:000
#EXO:+1
#RANGE:40°C/5.0(K/min)/600°C
#SEGMENT:S1/1
#SEG. 1:40°C/5.0(K/min)/600°C

##Temp./°C;Time/min;DTA/(uV/mg);Mass(subtr.)/%;DTG(subtr.)/(%/min);Sensit./(uV/mW)
 39.08600;  0.00000;7.178250e-02;100.00000;      0.26625;1.00000
 40.08600;  0.65253;7.245859e-02; 99.96720; 2.564369e-03;1.00000
 41.08600;  1.24326;8.049616e-02; 99.93067;-1.897784e-02;1.00000
 42.08600;  1.73832;9.084001e-02; 99.99755; 3.561474e-02;1.00000
 43.08600;  2.16135;     0.10332; 99.99356; 3.036265e-04;1.00000
 44.08600;  2.53107;     0.11586;100.00547; 5.287281e-02;1.00000
 45.08600;  2.86496;     0.12719;100.01078;-1.923298e-02;1.00000
 46.08600;  3.17503;     0.13775; 99.99847; 2.858230e-02;1.00000
 47.08600;  3.46337;     0.14770;100.01430; 2.246048e-02;1.00000
 48.08600;  3.73513;     0.15786; 99.99934; 6.225559e-02;1.00000
 49.08600;  3.99430;     0.16734;100.05617; 7.866700e-03;1.00000
 50.08600;  4.24209;     0.17770;100.02095;-7.454563e-02;1.00000
 51.08600;  4.47993;     0.18647; 99.99462;-2.915388e-02;1.00000
 52.08600;  4.70934;     0.19470;100.00750; 4.836603e-02;1.00000
 53.08600;  4.93039;     0.20340;100.01534; 6.264908e-02;1.00000
 54.08600;  5.14537;     0.21257;100.04570; 3.836018e-02;1.00000
 55.08600;  5.35431;     0.22049;100.04299;-1.065008e-02;1.00000
 56.08600;  5.55679;     0.22924;100.03259;-3.103577e-02;1.00000
 57.08600;  5.75444;     0.23677;100.03537;-1.374179e-02;1.00000
 58.08600;  5.94874;     0.24558;100.00390; 5.604412e-02;1.00000
 59.08600;  6.13855;     0.25276;100.06006; 7.913548e-02;1.00000
 60.08600;  6.32448;     0.26126;100.07669; 5.904085e-03;1.00000
 61.08600;  6.50698;     0.26953;100.05212;-3.945264e-02;1.00000
 62.08600;  6.68607;     0.27550;100.02446;-2.558729e-03;1.00000
 63.08600;  6.86261;     0.28424;100.06071; 3.007126e-02;1.00000
 64.08600;  7.03650;     0.29089;100.05960; 2.204006e-02;1.00000
 65.08600;  7.20892;     0.29937;100.04699; 2.180772e-02;1.00000
 66.08600;  7.37957;     0.30655;100.06822; 3.152977e-02;1.00000
 67.08600;  7.54803;     0.31430;100.06368; 2.200958e-02;1.00000
 68.08600;  7.71491;     0.31988;100.08585;-1.639813e-02;1.00000
 69.08600;  7.88047;     0.32688;100.07175;-5.035420e-02;1.00000
 70.08600;  8.04511;     0.33330;100.03296;-3.030307e-02;1.00000
 71.08600;  8.20830;     0.33937;100.05189; 1.984813e-02;1.00000
 72.08600;  8.37059;     0.34684;100.06162; 4.902309e-02;1.00000
 73.08600;  8.53180;     0.35317;100.06233; 4.574193e-02;1.00000
 74.08600;  8.69234;     0.36008;100.09264; 1.358742e-02;1.00000
 75.08600;  8.85179;     0.36631;100.07518;-1.986925e-02;1.00000
 76.08600;  9.01059;     0.37185;100.06125;-1.762850e-02;1.00000
 77.08600;  9.16912;     0.37772;100.06184; 1.134716e-02;1.00000
 78.08600;  9.32728;     0.38490;100.07463; 2.809453e-02;1.00000
 79.08600;  9.48480;     0.39066;100.07783; 1.089782e-02;1.00000
 80.08600;  9.64168;     0.39672;100.08638;-3.546792e-02;1.00000
 81.08600;  9.79764;     0.40181;100.08177;-6.955961e-02;1.00000
 82.08600;  9.95330;     0.40788;100.02903;-4.000814e-02;1.00000
 83.08600; 10.10934;     0.41409;100.03317; 2.853245e-02;1.00000
 84.08600; 10.26493;     0.41963;100.08236; 6.021178e-02;1.00000
 85.08600; 10.42051;     0.42369;100.07073; 4.911507e-02;1.00000
 86.08600; 10.57590;     0.42901;100.07474; 3.485017e-02;1.00000
 87.08600; 10.73113;     0.43439;100.08707; 1.605421e-02;1.00000
 88.08600; 10.88633;     0.44059;100.09830;-7.958984e-03;1.00000
 89.08600; 11.04129;     0.44578;100.06364;-7.776416e-03;1.00000
 90.08600; 11.19664;     0.45085;100.08063; 1.794176e-02;1.00000
 91.08600; 11.35206;     0.45555;100.08562; 4.289248e-02;1.00000
 92.08600; 11.50768;     0.46040;100.08653; 4.941711e-02;1.00000
 93.08600; 11.66347;     0.46531;100.11182; 1.858278e-02;1.00000
 94.08600; 11.81995;     0.46968;100.12191;-3.728875e-02;1.00000
 95.08600; 11.97650;     0.47454;100.07481;-5.608643e-02;1.00000
 96.08600; 12.13330;     0.47982;100.07109;-2.835794e-02;1.00000
 97.08600; 12.29086;     0.48297;100.08635;-1.572972e-02;1.00000
 98.08600; 12.44903;     0.48784;100.08761;-4.123111e-02;1.00000
 99.08600; 12.60799;     0.49193;100.07455;-4.872759e-02;1.00000
100.08600; 12.76810;     0.49694;100.03121; 1.095693e-02;1.00000
101.08600; 12.92840;     0.50043;100.06118; 8.917208e-02;1.00000
102.08600; 13.08959;     0.50440;100.10348;      0.10165;1.00000
103.08600; 13.25168;     0.50843;100.11241; 4.710098e-02;1.00000
104.08600; 13.41489;     0.51183;100.11489;-2.189747e-02;1.00000
105.08600; 13.57901;     0.51718;100.10166;-5.766185e-02;1.00000
106.08600; 13.74387;     0.51999;100.07219;-2.089944e-02;1.00000
107.08600; 13.90948;     0.52376;100.06646; 4.885577e-02;1.00000
108.08600; 14.07623;     0.52833;100.12655; 4.395322e-02;1.00000
109.08600; 14.24443;     0.53248;100.12477;-4.733855e-02;1.00000
110.08600; 14.41328;     0.53616;100.08819;     -0.10267;1.00000
111.08600; 14.58324;     0.54043;100.04778;-4.875792e-02;1.00000
112.08600; 14.75460;     0.54277;100.05975; 4.849342e-02;1.00000
113.08600; 14.92698;     0.54744;100.08716; 9.840136e-02;1.00000
114.08600; 15.09997;     0.55147;100.11877; 8.274070e-02;1.00000
115.08600; 15.27446;     0.55422;100.11200; 4.774317e-02;1.00000
116.08600; 15.45013;     0.55940;100.12529; 2.653825e-02;1.00000
117.08600; 15.62621;     0.56217;100.12414; 1.455926e-03;1.00000
118.08600; 15.80319;     0.56600;100.13273;-3.149351e-02;1.00000
119.08600; 15.98099;     0.56952;100.10595;-4.427689e-02;1.00000
120.08600; 16.15996;     0.57431;100.10424;-4.196066e-02;1.00000
121.08600; 16.34045;     0.57795;100.10961;-4.693113e-02;1.00000
122.08600; 16.52250;     0.58162;100.07075;-1.439924e-02;1.00000
123.08600; 16.70498;     0.58581;100.08319; 6.390543e-02;1.00000
124.08600; 16.88863;     0.58895;100.11178; 9.976386e-02;1.00000
125.08600; 17.07341;     0.59263;100.14817; 5.649084e-02;1.00000
126.08600; 17.25919;     0.59658;100.12498;-6.334307e-03;1.00000
127.08600; 17.44561;     0.60098;100.14270;-4.256523e-02;1.00000
128.08600; 17.63295;     0.60437;100.10084;-4.262253e-02;1.00000
129.08600; 17.82185;     0.60885;100.11832;-2.645473e-02;1.00000
130.08600; 18.01201;     0.61253;100.10388; 5.818359e-03;1.00000
131.08600; 18.20183;     0.61792;100.09350; 6.705070e-02;1.00000
132.08600; 18.39173;     0.62159;100.15102; 6.573700e-02;1.00000
133.08600; 18.58419;     0.62627;100.14419;-5.298893e-03;1.00000
134.08600; 18.77743;     0.62946;100.12273;-4.063266e-02;1.00000
135.08600; 18.97135;     0.63326;100.12755;-3.672692e-02;1.00000
136.08600; 19.16541;     0.63851;100.11353;-2.287301e-02;1.00000
137.08600; 19.36057;     0.64304;100.11200; 1.971895e-03;1.00000
138.08600; 19.55689;     0.64733;100.11807; 1.957659e-02;1.00000
139.08600; 19.75393;     0.65204;100.12215; 1.610828e-02;1.00000
140.08600; 19.95164;     0.65624;100.12494;-1.399211e-02;1.00000
141.08600; 20.14995;     0.66194;100.13444;-6.022598e-02;1.00000
142.08600; 20.34921;     0.66593;100.06730; 6.750374e-03;1.00000
143.08600; 20.54903;     0.67102;100.09805;      0.14153;1.00000
144.08600; 20.74914;     0.67577;100.19732; 7.915158e-02;1.00000
145.08600; 20.94944;     0.68023;100.15002;-5.435667e-02;1.00000
146.08600; 21.15035;     0.68585;100.11908;-5.448994e-02;1.00000
147.08600; 21.35161;     0.69079;100.13889; 3.992512e-03;1.00000
148.08600; 21.55422;     0.69578;100.11672; 6.948073e-02;1.00000
149.08600; 21.75733;     0.70117;100.17808; 6.146943e-02;1.00000
150.08600; 21.96011;     0.70545;100.16598;-1.524495e-02;1.00000
151.08600; 22.16423;     0.71138;100.14355;-4.011154e-02;1.00000
152.08600; 22.36897;     0.71532;100.15127;-2.614659e-02;1.00000
153.08600; 22.57274;     0.72222;100.14256;-1.582484e-02;1.00000
154.08600; 22.77666;     0.72727;100.13276;-1.258210e-02;1.00000
155.08600; 22.98173;     0.73270;100.14093;-2.444030e-02;1.00000
156.08600; 23.18656;     0.73812;100.12808;-3.988096e-02;1.00000
157.08600; 23.39109;     0.74409;100.12366;-9.080870e-03;1.00000
158.08600; 23.59658;     0.74946;100.10388; 6.833884e-02;1.00000
159.08600; 23.80250;     0.75596;100.15787; 7.061948e-02;1.00000
160.08600; 24.00851;     0.76236;100.15703;-8.341854e-04;1.00000
161.08600; 24.21516;     0.76844;100.13898;-1.249521e-02;1.00000
162.08600; 24.42164;     0.77403;100.14898; 1.161436e-02;1.00000
163.08600; 24.62790;     0.78079;100.14905; 1.574960e-02;1.00000
164.08600; 24.83448;     0.78595;100.16145; 5.165446e-03;1.00000
165.08600; 25.04123;     0.79272;100.15487;-1.332142e-02;1.00000
166.08600; 25.24754;     0.79960;100.14356;-1.795916e-03;1.00000
167.08600; 25.45358;     0.80611;100.15199; 1.462914e-02;1.00000
168.08600; 25.65972;     0.81207;100.16331;-6.374326e-03;1.00000
169.08600; 25.86556;     0.81896;100.14364;-2.228018e-02;1.00000
170.08600; 26.07129;     0.82476;100.14982;-1.860438e-02;1.00000
171.08600; 26.27727;     0.83220;100.14157;-3.960841e-03;1.00000
172.08600; 26.48363;     0.83856;100.13612; 3.322957e-02;1.00000
173.08600; 26.68960;     0.84521;100.15939; 3.711532e-02;1.00000
174.08600; 26.89487;     0.85145;100.17608;-6.812374e-03;1.00000
175.08600; 27.09971;     0.85858;100.12935; 8.585188e-03;1.00000
176.08600; 27.30462;     0.86600;100.17408; 2.190853e-02;1.00000
177.08600; 27.50918;     0.87200;100.17780;-3.973739e-02;1.00000
178.08600; 27.71347;     0.87886;100.11530; 7.513726e-03;1.00000
179.08600; 27.91786;     0.88610;100.16200;      0.10154;1.00000
180.08600; 28.12213;     0.89313;100.21409; 3.060985e-02;1.00000
181.08600; 28.32615;     0.89885;100.18124;-8.519236e-02;1.00000
182.08600; 28.53014;     0.90754;100.14640;-9.377608e-02;1.00000
183.08600; 28.73361;     0.91364;100.13706;-4.836492e-02;1.00000
184.08600; 28.93664;     0.92087;100.12744; 9.818716e-03;1.00000
185.08600; 29.14005;     0.92785;100.14090; 5.589445e-02;1.00000
186.08600; 29.34321;     0.93461;100.18475; 2.158449e-02;1.00000
187.08600; 29.54571;     0.94244;100.12290; 3.238965e-02;1.00000
188.08600; 29.74780;     0.94949;100.17980; 7.005708e-02;1.00000
189.08600; 29.94980;     0.95641;100.19504; 4.785393e-03;1.00000
190.08600; 30.15127;     0.96356;100.17481;-6.280234e-02;1.00000
191.08600; 30.35305;     0.97057;100.14791;-4.670062e-02;1.00000
192.08600; 30.55471;     0.97768;100.15049;-5.800327e-03;1.00000
193.08600; 30.75577;     0.98378;100.15500; 3.586819e-03;1.00000
194.08600; 30.95734;     0.99203;100.15808;-1.503357e-02;1.00000
195.08600; 31.15904;     0.99822;100.13581;-1.336864e-02;1.00000
196.08600; 31.36002;     1.00541;100.15358; 1.724792e-02;1.00000
197.08600; 31.56113;     1.01264;100.13899; 5.962932e-02;1.00000
198.08600; 31.76244;     1.01891;100.19172; 5.616391e-02;1.00000
199.08600; 31.96334;     1.02600;100.17887;-2.709723e-02;1.00000
200.08600; 32.16413;     1.03388;100.17126;-7.225139e-02;1.00000
201.08600; 32.36520;     1.04194;100.12288;-2.236015e-02;1.00000
202.08600; 32.56666;     1.04794;100.15123; 3.297288e-02;1.00000
203.08600; 32.76752;     1.05591;100.17941;-2.183749e-02;1.00000
204.08600; 32.96790;     1.06335;100.14444;-8.556052e-02;1.00000
205.08600; 33.16838;     1.06993;100.11906;-4.149271e-02;1.00000
206.08600; 33.36863;     1.07681;100.11590; 4.323081e-02;1.00000
207.08600; 33.56869;     1.08393;100.14040; 7.351758e-02;1.00000
208.08600; 33.76876;     1.09195;100.16734; 2.923549e-02;1.00000
209.08600; 33.96930;     1.09892;100.16569;-5.003171e-02;1.00000
210.08600; 34.17001;     1.10654;100.12683;-5.672153e-02;1.00000
211.08600; 34.37063;     1.11415;100.13799;-8.645005e-03;1.00000
212.08600; 34.57124;     1.12146;100.12172; 4.995509e-02;1.00000
213.08600; 34.77195;     1.12847;100.15109; 7.500697e-02;1.00000
214.08600; 34.97296;     1.13502;100.18005; 2.017211e-02;1.00000
215.08600; 35.17296;     1.14270;100.15674;-3.018597e-02;1.00000
216.08600; 35.37226;     1.15057;100.15250;-4.523279e-02;1.00000
217.08600; 35.57246;     1.15686;100.14923;-6.071893e-02;1.00000
218.08600; 35.77322;     1.16416;100.12001;-3.196248e-02;1.00000
219.08600; 35.97422;     1.17209;100.12139; 1.696670e-02;1.00000
220.08600; 36.17468;     1.17909;100.14879;-1.937664e-02;1.00000
221.08600; 36.37482;     1.18675;100.12358;-6.842850e-02;1.00000
222.08600; 36.57515;     1.19502;100.09487;-3.599498e-02;1.00000
223.08600; 36.77549;     1.20247;100.10631; 1.534424e-02;1.00000
224.08600; 36.97601;     1.20917;100.11564; 3.472115e-02;1.00000
225.08600; 37.17643;     1.21613;100.11779; 4.030356e-02;1.00000
226.08600; 37.37647;     1.22430;100.13227; 2.481932e-02;1.00000
227.08600; 37.57668;     1.23071;100.13432;-2.006276e-02;1.00000
228.08600; 37.77702;     1.23888;100.13025;-6.237486e-02;1.00000
229.08600; 37.97750;     1.24621;100.09698;-6.755995e-02;1.00000
230.08600; 38.17812;     1.25258;100.10213;-5.594487e-02;1.00000
231.08600; 38.37898;     1.25986;100.07746;-3.242033e-02;1.00000
232.08600; 38.57970;     1.26747;100.07752;-1.826518e-03;1.00000
233.08600; 38.77979;     1.27510;100.08639; 3.412886e-03;1.00000
234.08600; 38.98002;     1.28258;100.08357;-2.287168e-03;1.00000
235.08600; 39.18006;     1.28963;100.08585;-2.224962e-02;1.00000
236.08600; 39.38025;     1.29797;100.07523;-5.537133e-02;1.00000
237.08600; 39.58111;     1.30507;100.06000;-6.925247e-02;1.00000
238.08600; 39.78196;     1.31404;100.04947;-5.997773e-02;1.00000
239.08600; 39.98262;     1.32184;100.03617;-4.921118e-02;1.00000
240.08600; 40.18331;     1.32831;100.01886;-1.278361e-02;1.00000
241.08600; 40.38429;     1.33549;100.02893; 2.174693e-02;1.00000
242.08600; 40.58480;     1.34364;100.03726; 1.259103e-02;1.00000
243.08600; 40.78495;     1.35158;100.04850;-3.738809e-02;1.00000
244.08600; 40.98467;     1.35918;100.02311;-8.875480e-02;1.00000
245.08600; 41.18445;     1.36654; 99.99160;-7.907410e-02;1.00000
246.08600; 41.38501;     1.37483; 99.98616;-4.025104e-02;1.00000
247.08600; 41.58559;     1.38387; 99.99062;-4.110891e-02;1.00000
248.08600; 41.78568;     1.39013; 99.97065;-3.917986e-02;1.00000
249.08600; 41.98557;     1.39838; 99.95502;-5.044228e-04;1.00000
250.08600; 42.18571;     1.40509; 99.98846;-2.074212e-02;1.00000
251.08600; 42.38614;     1.41343; 99.96609;     -0.10103;1.00000
252.08600; 42.58664;     1.42016; 99.92851;     -0.12176;1.00000
253.08600; 42.78700;     1.42919; 99.89744;-7.863655e-02;1.00000
254.08600; 42.98783;     1.43796; 99.91472;-3.970712e-02;1.00000
255.08600; 43.18863;     1.44652; 99.87313; 1.856271e-03;1.00000
256.08600; 43.38880;     1.45387; 99.92251;-1.163174e-02;1.00000
257.08600; 43.58859;     1.46206; 99.89578;-8.132558e-02;1.00000
258.08600; 43.78862;     1.46977; 99.85396;-7.366866e-02;1.00000
259.08600; 43.98849;     1.47870; 99.85993;-3.307139e-02;1.00000
260.08600; 44.18832;     1.48560; 99.86269;-5.237768e-02;1.00000
261.08600; 44.38859;     1.49507; 99.84065;-8.874587e-02;1.00000
262.08600; 44.58891;     1.50348; 99.82083;     -0.11159;1.00000
263.08600; 44.78942;     1.51182; 99.79905;     -0.12887;1.00000
264.08600; 44.98987;     1.52024; 99.76020;-9.079116e-02;1.00000
265.08600; 45.19030;     1.52854; 99.74327;-2.040007e-03;1.00000
266.08600; 45.39057;     1.53722; 99.78599;-3.685329e-03;1.00000
267.08600; 45.59036;     1.54573; 99.77059;-9.863477e-02;1.00000
268.08600; 45.79073;     1.55396; 99.72285;     -0.14911;1.00000
269.08600; 45.99155;     1.56326; 99.69237;     -0.13359;1.00000
270.08600; 46.19207;     1.57351; 99.68012;     -0.12359;1.00000
271.08600; 46.39257;     1.58174; 99.63972;     -0.10921;1.00000
272.08600; 46.59277;     1.59110; 99.63240;     -0.10140;1.00000
273.08600; 46.79306;     1.60056; 99.62176;     -0.14106;1.00000
274.08600; 46.99343;     1.61013; 99.56017;     -0.15499;1.00000
275.08600; 47.19411;     1.61981; 99.54325;     -0.13926;1.00000
276.08600; 47.39464;     1.62878; 99.53072;     -0.17607;1.00000
277.08600; 47.59465;     1.63882; 99.46175;     -0.16403;1.00000
278.08600; 47.79534;     1.64950; 99.43181;-6.919176e-02;1.00000
279.08600; 47.99569;     1.65910; 99.45998;-5.835030e-02;1.00000
280.08600; 48.19592;     1.66854; 99.45293;     -0.14774;1.00000
281.08600; 48.39670;     1.67884; 99.37616;     -0.19929;1.00000
282.08600; 48.59705;     1.68904; 99.34838;     -0.21422;1.00000
283.08600; 48.79740;     1.69948; 99.32348;     -0.26874;1.00000
284.08600; 48.99829;     1.70968; 99.21419;     -0.23917;1.00000
285.08600; 49.19905;     1.72037; 99.18880;     -0.11563;1.00000
286.08600; 49.39956;     1.73139; 99.21132;     -0.11777;1.00000
287.08600; 49.60014;     1.74104; 99.17614;     -0.23533;1.00000
288.08600; 49.80065;     1.75258; 99.08654;     -0.28334;1.00000
289.08600; 50.00058;     1.76365; 99.04324;     -0.25714;1.00000
290.08600; 50.20057;     1.77323; 98.99920;     -0.25850;1.00000
291.08600; 50.40061;     1.78415; 98.94841;     -0.30519;1.00000
292.08600; 50.60065;     1.79454; 98.87216;     -0.33431;1.00000
293.08600; 50.80103;     1.80499; 98.80447;     -0.31301;1.00000
294.08600; 51.00201;     1.81709; 98.75376;     -0.31092;1.00000
295.08600; 51.20261;     1.82853; 98.68448;     -0.36665;1.00000
296.08600; 51.40311;     1.83936; 98.61860;     -0.40158;1.00000
297.08600; 51.60350;     1.85068; 98.48975;     -0.34322;1.00000
298.08600; 51.80409;     1.86175; 98.49987;     -0.33971;1.00000
299.08600; 52.00475;     1.87211; 98.38723;     -0.42978;1.00000
300.08600; 52.20498;     1.88354; 98.29327;     -0.48340;1.00000
301.08600; 52.40547;     1.89529; 98.19527;     -0.49735;1.00000
302.08600; 52.60572;     1.90818; 98.07808;     -0.50778;1.00000
303.08600; 52.80530;     1.91940; 98.03458;     -0.62310;1.00000
304.08600; 53.00531;     1.93069; 97.83556;     -0.76384;1.00000
305.08600; 53.20559;     1.94348; 97.68555;     -0.81958;1.00000
306.08600; 53.40485;     1.95528; 97.52873;     -0.86836;1.00000
307.08600; 53.60485;     1.96731; 97.33224;     -0.92296;1.00000
308.08600; 53.80603;     1.97950; 97.15932;     -1.03263;1.00000
309.08600; 54.00705;     1.99121; 96.94813;     -1.22302;1.00000
310.08600; 54.20690;     2.00286; 96.66194;     -1.39289;1.00000
311.08600; 54.40639;     2.01474; 96.36521;     -1.48031;1.00000
312.08600; 54.60638;     2.02708; 96.07264;     -1.55651;1.00000
313.08600; 54.80637;     2.03923; 95.75917;     -1.65464;1.00000
314.08600; 55.00591;     2.05110; 95.40095;     -1.71864;1.00000
315.08600; 55.20596;     2.06469; 95.04828;     -1.72636;1.00000
316.08600; 55.40606;     2.07864; 94.72039;     -1.73886;1.00000
317.08600; 55.60608;     2.09156; 94.36435;     -1.79927;1.00000
318.08600; 55.80598;     2.10685; 94.00895;     -1.89439;1.00000
319.08600; 56.00625;     2.12028; 93.60415;     -1.99204;1.00000
320.08600; 56.20619;     2.13505; 93.20841;     -2.09505;1.00000
321.08600; 56.40560;     2.15050; 92.77909;     -2.18287;1.00000
322.08600; 56.60534;     2.16681; 92.31168;     -2.22580;1.00000
323.08600; 56.80481;     2.18313; 91.90449;     -2.35507;1.00000
324.08600; 57.00453;     2.20046; 91.40530;     -2.56477;1.00000
325.08600; 57.20423;     2.21988; 90.84920;     -2.69857;1.00000
326.08600; 57.40394;     2.23883; 90.32789;     -2.78238;1.00000
327.08600; 57.60439;     2.26061; 89.73823;     -2.87291;1.00000
328.08600; 57.80462;     2.28160; 89.16838;     -2.97905;1.00000
329.08600; 58.00456;     2.30437; 88.55688;     -3.10954;1.00000
330.08600; 58.20432;     2.32837; 87.92324;     -3.24404;1.00000
331.08600; 58.40361;     2.35231; 87.26556;     -3.34462;1.00000
332.08600; 58.60312;     2.37779; 86.56039;     -3.38583;1.00000
333.08600; 58.80261;     2.40199; 85.93439;     -3.49467;1.00000
334.08600; 59.00204;     2.42704; 85.20479;     -3.72843;1.00000
335.08600; 59.20186;     2.45331; 84.43287;     -3.96722;1.00000
336.08600; 59.40150;     2.48105; 83.61005;     -4.15237;1.00000
337.08600; 59.60087;     2.51151; 82.76818;     -4.29620;1.00000
338.08600; 59.79985;     2.54214; 81.89906;     -4.42532;1.00000
339.08600; 59.99878;     2.57508; 81.00285;     -4.53493;1.00000
340.08600; 60.19821;     2.61135; 80.09062;     -4.61430;1.00000
341.08600; 60.39760;     2.64883; 79.15326;     -4.65723;1.00000
342.08600; 60.59715;     2.68933; 78.22373;     -4.66349;1.00000
343.08600; 60.79643;     2.72922; 77.29479;     -4.65125;1.00000
344.08600; 60.99523;     2.77088; 76.36791;     -4.62664;1.00000
345.08600; 61.19412;     2.81418; 75.45399;     -4.58606;1.00000
346.08600; 61.39355;     2.85741; 74.53522;     -4.50996;1.00000
347.08600; 61.59331;     2.89978; 73.64323;     -4.40852;1.00000
348.08600; 61.79263;     2.94244; 72.79405;     -4.28815;1.00000
349.08600; 61.99214;     2.98623; 71.89544;     -4.04247;1.00000
350.08600; 62.19251;     3.03114; 71.16102;     -3.76289;1.00000
351.08600; 62.39262;     3.07553; 70.43982;     -3.63449;1.00000
352.08600; 62.59215;     3.12049; 69.70665;     -3.56482;1.00000
353.08600; 62.79211;     3.16475; 69.00845;     -3.50452;1.00000
354.08600; 62.99214;     3.20691; 68.32047;     -3.48894;1.00000
355.08600; 63.19197;     3.24668; 67.62561;     -3.44613;1.00000
356.08600; 63.39208;     3.28363; 66.89151;     -3.27017;1.00000
357.08600; 63.59254;     3.31915; 66.30746;     -3.10532;1.00000
358.08600; 63.79264;     3.35111; 65.71608;     -3.12154;1.00000
359.08600; 63.99247;     3.37937; 65.05042;     -3.14969;1.00000
360.08600; 64.19269;     3.40480; 64.42827;     -3.06301;1.00000
361.08600; 64.39307;     3.42675; 63.81703;     -2.91656;1.00000
362.08600; 64.59340;     3.44685; 63.25116;     -2.76278;1.00000
363.08600; 64.79432;     3.46256; 62.72379;     -2.65751;1.00000
364.08600; 64.99563;     3.47401; 62.19139;     -2.58343;1.00000
365.08600; 65.19627;     3.48333; 61.67547;     -2.49432;1.00000
366.08600; 65.39692;     3.49074; 61.18549;     -2.40738;1.00000
367.08600; 65.59815;     3.49399; 60.72073;     -2.34578;1.00000
368.08600; 65.79984;     3.49689; 60.23738;     -2.28307;1.00000
369.08600; 66.00115;     3.49666; 59.79549;     -2.22284;1.00000
370.08600; 66.20244;     3.49671; 59.36587;     -2.18958;1.00000
371.08600; 66.40385;     3.49511; 58.88407;     -2.06382;1.00000
372.08600; 66.60512;     3.49237; 58.50556;     -1.83810;1.00000
373.08600; 66.80636;     3.49004; 58.17153;     -1.67950;1.00000
374.08600; 67.00736;     3.48662; 57.86279;     -1.62614;1.00000
375.08600; 67.20892;     3.48291; 57.49460;     -1.56379;1.00000
376.08600; 67.41069;     3.48007; 57.21761;     -1.47019;1.00000
377.08600; 67.61263;     3.47592; 56.92915;     -1.43949;1.00000
378.08600; 67.81446;     3.47442; 56.63272;     -1.39577;1.00000
379.08600; 68.01597;     3.47230; 56.34582;     -1.25336;1.00000
380.08600; 68.21769;     3.47242; 56.11018;     -1.07477;1.00000
381.08600; 68.41993;     3.47120; 55.94856;     -1.03328;1.00000
382.08600; 68.62195;     3.46708; 55.71432;     -1.08429;1.00000
383.08600; 68.82315;     3.46647; 55.48832;     -1.09829;1.00000
384.08600; 69.02457;     3.46476; 55.28549;     -1.05986;1.00000
385.08600; 69.22624;     3.46352; 55.03554;     -0.94215;1.00000
386.08600; 69.42757;     3.46083; 54.89325;     -0.82450;1.00000
387.08600; 69.62875;     3.46021; 54.75070;     -0.82088;1.00000
388.08600; 69.83027;     3.45766; 54.53230;     -0.79153;1.00000
389.08600; 70.03170;     3.45487; 54.42571;     -0.75464;1.00000
390.08600; 70.23252;     3.45264; 54.26886;     -0.81741;1.00000
391.08600; 70.43350;     3.45071; 54.08318;     -0.86798;1.00000
392.08600; 70.63483;     3.44893; 53.91178;     -0.81757;1.00000
393.08600; 70.83572;     3.44741; 53.72500;     -0.68569;1.00000
394.08600; 71.03682;     3.44632; 53.66467;     -0.64615;1.00000
395.08600; 71.23776;     3.44673; 53.50242;     -0.73290;1.00000
396.08600; 71.43849;     3.44569; 53.33551;     -0.78389;1.00000
397.08600; 71.63948;     3.44591; 53.19214;     -0.77576;1.00000
398.08600; 71.84001;     3.44661; 53.00476;     -0.70784;1.00000
399.08600; 72.04043;     3.44862; 52.90609;     -0.64697;1.00000
400.08600; 72.24116;     3.45020; 52.78047;     -0.68644;1.00000
401.08600; 72.44215;     3.45290; 52.62650;     -0.75518;1.00000
402.08600; 72.64272;     3.45586; 52.46395;     -0.76898;1.00000
403.08600; 72.84255;     3.46138; 52.30460;     -0.72970;1.00000
404.08600; 73.04265;     3.46659; 52.17121;     -0.69065;1.00000
405.08600; 73.24270;     3.47333; 52.04027;     -0.69527;1.00000
406.08600; 73.44308;     3.48042; 51.89549;     -0.71987;1.00000
407.08600; 73.64350;     3.48854; 51.75875;     -0.74346;1.00000
408.08600; 73.84386;     3.49721; 51.58684;     -0.73449;1.00000
409.08600; 74.04404;     3.50787; 51.45514;     -0.69814;1.00000
410.08600; 74.24373;     3.51932; 51.32135;     -0.70390;1.00000
411.08600; 74.44355;     3.53237; 51.18189;     -0.76892;1.00000
412.08600; 74.64344;     3.54571; 51.01512;     -0.82907;1.00000
413.08600; 74.84336;     3.56069; 50.82454;     -0.82762;1.00000
414.08600; 75.04328;     3.57635; 50.70229;     -0.82184;1.00000
415.08600; 75.24303;     3.59329; 50.48874;     -0.78265;1.00000
416.08600; 75.44257;     3.61242; 50.38365;     -0.75232;1.00000
417.08600; 75.64160;     3.63307; 50.21877;     -0.80215;1.00000
418.08600; 75.84052;     3.65404; 50.04979;     -0.84356;1.00000
419.08600; 76.03957;     3.67496; 49.87802;     -0.85333;1.00000
420.08600; 76.23898;     3.69844; 49.71745;     -0.87925;1.00000
421.08600; 76.43872;     3.72400; 49.52687;     -0.90343;1.00000
422.08600; 76.63834;     3.75147; 49.33346;     -0.89180;1.00000
423.08600; 76.83762;     3.78184; 49.19195;     -0.92335;1.00000
424.08600; 77.03655;     3.81374; 48.98551;     -0.97126;1.00000
425.08600; 77.23578;     3.84747; 48.76424;     -0.93073;1.00000
426.08600; 77.43517;     3.88526; 48.62742;     -0.92649;1.00000
427.08600; 77.63389;     3.92509; 48.42772;     -1.03568;1.00000
428.08600; 77.83299;     3.96805; 48.20070;     -1.14570;1.00000
429.08600; 78.03245;     4.01435; 47.96508;     -1.19859;1.00000
430.08600; 78.23113;     4.06443; 47.71452;     -1.20814;1.00000
431.08600; 78.42975;     4.11830; 47.48118;     -1.21721;1.00000
432.08600; 78.62853;     4.17429; 47.24339;     -1.26048;1.00000
433.08600; 78.82694;     4.23205; 46.98679;     -1.33296;1.00000
434.08600; 79.02510;     4.29419; 46.71412;     -1.40757;1.00000
435.08600; 79.22368;     4.35953; 46.42205;     -1.47331;1.00000
436.08600; 79.42187;     4.42556; 46.13464;     -1.55932;1.00000
437.08600; 79.62045;     4.49500; 45.81269;     -1.67252;1.00000
438.08600; 79.81850;     4.56641; 45.46906;     -1.78055;1.00000
439.08600; 80.01637;     4.63860; 45.09852;     -1.86166;1.00000
440.08600; 80.21467;     4.70967; 44.73267;     -1.92908;1.00000
441.08600; 80.41267;     4.78025; 44.33447;     -1.98348;1.00000
442.08600; 80.61073;     4.85110; 43.93782;     -2.03166;1.00000
443.08600; 80.80869;     4.91891; 43.54277;     -2.12884;1.00000
444.08600; 81.00700;     4.98612; 43.10955;     -2.27379;1.00000
445.08600; 81.20543;     5.05042; 42.63351;     -2.39325;1.00000
446.08600; 81.40414;     5.11466; 42.13694;     -2.41782;1.00000
447.08600; 81.60313;     5.17814; 41.64779;     -2.36924;1.00000
448.08600; 81.80165;     5.23592; 41.23101;     -2.37647;1.00000
449.08600; 82.00026;     5.29057; 40.70446;     -2.40065;1.00000
450.08600; 82.19930;     5.34254; 40.26470;     -2.43966;1.00000
451.08600; 82.39829;     5.39134; 39.76415;     -2.54779;1.00000
452.08600; 82.59763;     5.43939; 39.22806;     -2.62630;1.00000
453.08600; 82.79681;     5.48428; 38.70856;     -2.66004;1.00000
454.08600; 82.99602;     5.52627; 38.17545;     -2.67021;1.00000
455.08600; 83.19530;     5.56436; 37.62078;     -2.59764;1.00000
456.08600; 83.39527;     5.60040; 37.12596;     -2.49141;1.00000
457.08600; 83.59570;     5.63524; 36.65044;     -2.48287;1.00000
458.08600; 83.79565;     5.66706; 36.14841;     -2.53637;1.00000
459.08600; 83.99576;     5.69468; 35.62627;     -2.56620;1.00000
460.08600; 84.19629;     5.71935; 35.11491;     -2.55940;1.00000
461.08600; 84.39706;     5.74008; 34.58007;     -2.49652;1.00000
462.08600; 84.59791;     5.75904; 34.10855;     -2.38513;1.00000
463.08600; 84.79901;     5.77447; 33.61565;     -2.26519;1.00000
464.08600; 84.99999;     5.78601; 33.20675;     -2.18684;1.00000
465.08600; 85.20153;     5.79392; 32.75948;     -2.16114;1.00000
466.08600; 85.40316;     5.79914; 32.31105;     -2.10656;1.00000
467.08600; 85.60434;     5.80047; 31.92349;     -2.07119;1.00000
468.08600; 85.80608;     5.79815; 31.49026;     -2.03792;1.00000
469.08600; 86.00759;     5.79226; 31.06423;     -1.90921;1.00000
470.08600; 86.20913;     5.78348; 30.71605;     -1.71758;1.00000
471.08600; 86.41111;     5.76612; 30.36958;     -1.53802;1.00000
472.08600; 86.61312;     5.74062; 30.11920;     -1.44156;1.00000
473.08600; 86.81554;     5.70743; 29.80288;     -1.39677;1.00000
474.08600; 87.01745;     5.66337; 29.52409;     -1.29225;1.00000
475.08600; 87.21947;     5.60513; 29.28119;     -1.12440;1.00000
476.08600; 87.42195;     5.52374; 29.05985;     -0.91157;1.00000
477.08600; 87.62505;     5.40465; 28.91059;     -0.71332;1.00000
478.08600; 87.82883;     5.23644; 28.78880;     -0.56289;1.00000
479.08600; 88.03324;     5.01396; 28.65982;     -0.37683;1.00000
480.08600; 88.23809;     4.75006; 28.63536;     -0.19697;1.00000
481.08600; 88.44324;     4.46666; 28.60777;-9.753603e-02;1.00000
482.08600; 88.65002;     4.19322; 28.58936;-8.314303e-03;1.00000
483.08600; 88.85807;     3.95562; 28.60443;      0.10154;1.00000
484.08600; 89.06641;     3.77684; 28.62106;      0.24079;1.00000
485.08600; 89.27422;     3.66176; 28.70354;      0.36761;1.00000
486.08600; 89.48163;     3.55740; 28.79015;      0.41848;1.00000
487.08600; 89.68816;     3.45139; 28.87818;      0.38991;1.00000
488.08600; 89.89351;     3.35552; 28.99143;      0.20771;1.00000
489.08600; 90.09853;     3.27516; 28.98179; 6.522468e-02;1.00000
490.08600; 90.30267;     3.20746; 28.92484;      0.16986;1.00000
491.08600; 90.50639;     3.15569; 29.08310;      0.20077;1.00000
492.08600; 90.70893;     3.11297; 29.07506; 2.101223e-02;1.00000
493.08600; 90.91031;     3.08132; 29.04910;-9.018827e-02;1.00000
494.08600; 91.11167;     3.05565; 29.00630;-4.056388e-02;1.00000
495.08600; 91.31274;     3.03637; 29.01636; 9.349675e-02;1.00000
496.08600; 91.51322;     3.02215; 29.06017;      0.16177;1.00000
497.08600; 91.71223;     3.01176; 29.10933; 8.743640e-02;1.00000
498.08600; 91.91035;     3.00464; 29.11059;-3.274554e-02;1.00000
499.08600; 92.10917;     2.99909; 29.07056;-7.441665e-02;1.00000
500.08600; 92.30795;     2.99792; 29.06631;-5.156178e-02;1.00000
501.08600; 92.50586;     2.99510; 29.06259;-2.196123e-02;1.00000
502.08600; 92.70347;     2.99676; 29.04557; 3.704149e-02;1.00000
503.08600; 92.90133;     2.99669; 29.07694; 8.246487e-02;1.00000
504.08600; 93.09931;     2.99922; 29.09535; 6.224205e-02;1.00000
505.08600; 93.29659;     3.00131; 29.10981;-1.263280e-02;1.00000
506.08600; 93.49381;     3.00433; 29.09890;-8.325325e-02;1.00000
507.08600; 93.69133;     3.00794; 29.03995;-4.240379e-02;1.00000
508.08600; 93.88811;     3.01020; 29.06982; 5.041150e-02;1.00000
509.08600; 94.08499;     3.01465; 29.09280; 7.012826e-02;1.00000
510.08600; 94.28184;     3.01807; 29.09430; 3.966304e-02;1.00000
511.08600; 94.47884;     3.02094; 29.11429;-1.510843e-02;1.00000
512.08600; 94.67621;     3.02542; 29.09009;-5.678425e-02;1.00000
513.08600; 94.87373;     3.02942; 29.07327;-5.727401e-02;1.00000
514.08600; 95.07123;     3.03331; 29.08332;-5.748354e-02;1.00000
515.08600; 95.26900;     3.03658; 29.03293; 2.333537e-03;1.00000
516.08600; 95.46640;     3.04224; 29.05233;      0.10440;1.00000
517.08600; 95.66414;     3.04646; 29.12986; 6.735919e-02;1.00000
518.08600; 95.86230;     3.05202; 29.09117;-2.309063e-02;1.00000
519.08600; 96.06012;     3.05610; 29.09395;-4.898008e-02;1.00000
520.08600; 96.25787;     3.06076; 29.06911;-1.974919e-02;1.00000
521.08600; 96.45601;     3.06460; 29.06932; 3.737311e-02;1.00000
522.08600; 96.65467;     3.06779; 29.11554; 1.926620e-02;1.00000
523.08600; 96.85266;     3.07239; 29.08710;-1.640164e-02;1.00000
524.08600; 97.05006;     3.07713; 29.06975; 3.390827e-02;1.00000
525.08600; 97.24812;     3.08217; 29.11478; 6.371606e-02;1.00000
526.08600; 97.44691;     3.08648; 29.11601; 1.039560e-02;1.00000
527.08600; 97.64567;     3.09106; 29.11146;-5.362820e-02;1.00000
528.08600; 97.84431;     3.09517; 29.09899;-6.220602e-02;1.00000
529.08600; 98.04355;     3.09795; 29.04916; 2.453113e-02;1.00000
530.08600; 98.24249;     3.10354; 29.12072; 7.349051e-02;1.00000
531.08600; 98.44130;     3.10866; 29.12001; 4.245732e-03;1.00000
532.08600; 98.64053;     3.11332; 29.09850;-5.066112e-02;1.00000
533.08600; 98.83945;     3.11715; 29.09420;-3.103695e-02;1.00000
534.08600; 99.03874;     3.12235; 29.06763; 3.803381e-02;1.00000
535.08600; 99.23820;     3.12705; 29.13366; 3.176303e-02;1.00000
536.08600; 99.43763;     3.13172; 29.09898;-2.468332e-02;1.00000
537.08600; 99.63705;     3.13557; 29.08607;-7.106433e-04;1.00000
538.08600; 99.83610;     3.14010; 29.11786;-2.181500e-03;1.00000
539.08600;100.03533;     3.14520; 29.10023;-2.568288e-02;1.00000
540.08600;100.23459;     3.15014; 29.07178; 3.323910e-02;1.00000
541.08600;100.43372;     3.15391; 29.11965; 6.646008e-02;1.00000
542.08600;100.63339;     3.15863; 29.12653;-7.895783e-03;1.00000
543.08600;100.83302;     3.16353; 29.11757;-6.391857e-02;1.00000
544.08600;101.03245;     3.16752; 29.05706; 2.127786e-02;1.00000
545.08600;101.23205;     3.17261; 29.11413;      0.12546;1.00000
546.08600;101.43116;     3.17692; 29.16263; 4.345645e-02;1.00000
547.08600;101.63080;     3.18072; 29.15047;     -0.10443;1.00000
548.08600;101.83084;     3.18533; 29.07064;-8.920393e-02;1.00000
549.08600;102.03059;     3.18924; 29.08418; 2.811557e-02;1.00000
550.08600;102.23045;     3.19524; 29.12753; 5.156516e-02;1.00000
551.08600;102.43042;     3.19952; 29.10608; 3.249112e-02;1.00000
552.08600;102.62996;     3.20411; 29.13492; 3.386926e-03;1.00000
553.08600;102.82931;     3.20864; 29.12398;-6.884566e-02;1.00000
554.08600;103.02901;     3.21319; 29.10177;     -0.10719;1.00000
555.08600;103.22880;     3.21772; 29.05339;-7.433840e-03;1.00000
556.08600;103.42865;     3.22263; 29.06815;      0.15732;1.00000
557.08600;103.62874;     3.22681; 29.17154;      0.12811;1.00000
558.08600;103.82817;     3.23048; 29.16395;-4.753052e-02;1.00000
559.08600;104.02754;     3.23483; 29.10883;     -0.12329;1.00000
560.08600;104.22757;     3.23902; 29.08981;-6.823454e-02;1.00000
561.08600;104.42762;     3.24258; 29.08528; 6.235353e-03;1.00000
562.08600;104.62744;     3.24700; 29.09636; 2.895770e-02;1.00000
563.08600;104.82730;     3.25105; 29.11758;-1.367707e-03;1.00000
564.08600;105.02714;     3.25539; 29.08627; 9.041517e-04;1.00000
565.08600;105.22705;     3.26091; 29.10188; 3.627930e-02;1.00000
566.08600;105.42684;     3.26529; 29.11875; 3.374885e-02;1.00000
567.08600;105.62689;     3.26857; 29.11538; 2.110546e-02;1.00000
568.08600;105.82680;     3.27328; 29.12336; 1.634954e-02;1.00000
569.08600;106.02638;     3.27823; 29.12067; 9.926976e-03;1.00000
570.08600;106.22595;     3.28235; 29.12850;-1.068540e-04;1.00000
571.08600;106.42565;     3.28567; 29.12461;-1.952584e-02;1.00000
572.08600;106.62550;     3.28922; 29.11620;-3.613525e-02;1.00000
573.08600;106.82565;     3.29388; 29.10788;-2.755709e-02;1.00000
574.08600;107.02610;     3.29781; 29.10262; 8.273890e-03;1.00000
575.08600;107.22579;     3.30125; 29.10695; 5.266402e-02;1.00000
576.08600;107.42488;     3.30549; 29.12849; 5.534024e-02;1.00000
577.08600;107.62441;     3.30950; 29.15398;-8.519085e-03;1.00000
578.08600;107.82461;     3.31378; 29.10667;-2.768369e-02;1.00000
579.08600;108.02505;     3.31794; 29.12319; 2.026373e-03;1.00000
580.08600;108.22543;     3.32082; 29.13991;-3.602138e-02;1.00000
581.08600;108.42593;     3.32503; 29.11036;-9.482933e-02;1.00000
582.08600;108.62616;     3.33056; 29.08832;-7.941722e-02;1.00000
583.08600;108.82612;     3.33491; 29.05523;-2.044496e-03;1.00000
584.08600;109.02610;     3.33846; 29.10217; 6.835332e-02;1.00000
585.08600;109.22565;     3.34232; 29.07834;      0.10841;1.00000
586.08600;109.42524;     3.34707; 29.16438; 5.544118e-02;1.00000
587.08600;109.62526;     3.35109; 29.13271;-6.356379e-02;1.00000
588.08600;109.82508;     3.35612; 29.09936;-9.228530e-02;1.00000
589.08600;110.02496;     3.35932; 29.08132;-3.094384e-02;1.00000
590.08600;110.22461;     3.36330; 29.08454; 4.044117e-02;1.00000
591.08600;110.42401;     3.36820; 29.12003; 5.100934e-02;1.00000
592.08600;110.62320;     3.37267; 29.10440; 3.188690e-02;1.00000
593.08600;110.82273;     3.37524; 29.13293; 5.710873e-03;1.00000
594.08600;111.02266;     3.37957; 29.10538;-5.761659e-03;1.00000
595.08600;111.22253;     3.38295; 29.11305; 3.312642e-03;1.00000
596.08600;111.42243;     3.38604; 29.13096;-3.976628e-02;1.00000
597.08600;111.62242;     3.39036; 29.09451;-6.914988e-02;1.00000
598.08600;111.82241;     3.39496; 29.07206; 9.160678e-02;1.00000

